# f(Hz)	 Electron noise power spectrum density (V^2/Hz)
4.0876e+03 2.8145e-15
4.2686e+03 2.8137e-15
4.4575e+03 2.8130e-15
4.6549e+03 2.8121e-15
4.8610e+03 2.8112e-15
5.0762e+03 2.8102e-15
5.3009e+03 2.8092e-15
5.5356e+03 2.8080e-15
5.7807e+03 2.8068e-15
6.0367e+03 2.8054e-15
6.3039e+03 2.8039e-15
6.5830e+03 2.8024e-15
6.8745e+03 2.8007e-15
7.1788e+03 2.7988e-15
7.4967e+03 2.7969e-15
7.8286e+03 2.7948e-15
8.1752e+03 2.7925e-15
8.5371e+03 2.7901e-15
8.9151e+03 2.7876e-15
9.3098e+03 2.7848e-15
9.7220e+03 2.7820e-15
1.0152e+04 2.7790e-15
1.0602e+04 2.7758e-15
1.1071e+04 2.7725e-15
1.1561e+04 2.7691e-15
1.2073e+04 2.7656e-15
1.2608e+04 2.7620e-15
1.3166e+04 2.7584e-15
1.3749e+04 2.7548e-15
1.4358e+04 2.7512e-15
1.4993e+04 2.7479e-15
1.5657e+04 2.7447e-15
1.6350e+04 2.7420e-15
1.7074e+04 2.7397e-15
1.7830e+04 2.7381e-15
1.8620e+04 2.7374e-15
1.9444e+04 2.7379e-15
2.0305e+04 2.7398e-15
2.1204e+04 2.7436e-15
2.2143e+04 2.7498e-15
2.3123e+04 2.7591e-15
2.4147e+04 2.7722e-15
2.5216e+04 2.7902e-15
2.6332e+04 2.8146e-15
2.7498e+04 2.8475e-15
2.8715e+04 2.8915e-15
2.9987e+04 2.9509e-15
3.1314e+04 3.0322e-15
3.2701e+04 3.1459e-15
3.4148e+04 3.3104e-15
3.5660e+04 3.5610e-15
3.7239e+04 3.9736e-15
3.8888e+04 4.7432e-15
4.0610e+04 6.5326e-15
4.2408e+04 1.3309e-14
4.4285e+04 3.0591e-12
4.6246e+04 5.3567e-13
4.8293e+04 1.2231e-13
5.0431e+04 3.0192e-14
5.2664e+04 1.4819e-14
5.4996e+04 9.6466e-15
5.7431e+04 7.0144e-15
5.9973e+04 5.3713e-15
6.2629e+04 4.2355e-15
6.5401e+04 3.4069e-15
6.8297e+04 2.7813e-15
7.1321e+04 2.2970e-15
7.4478e+04 1.9145e-15
7.7776e+04 1.6074e-15
8.1219e+04 1.3576e-15
8.4815e+04 1.1522e-15
8.8570e+04 9.8190e-16
9.2492e+04 8.3970e-16
9.6587e+04 7.2025e-16
1.0086e+05 6.1941e-16
1.0533e+05 5.3390e-16
1.0999e+05 4.6111e-16
1.1486e+05 3.9895e-16
1.1995e+05 3.4570e-16
1.2526e+05 2.9996e-16
1.3080e+05 2.6060e-16
1.3659e+05 2.2664e-16
1.4264e+05 1.9731e-16
1.4896e+05 1.7191e-16
1.5555e+05 1.4991e-16
1.6244e+05 1.3081e-16
1.6963e+05 1.1421e-16
1.7714e+05 9.9782e-17
1.8498e+05 8.7218e-17
1.9317e+05 7.6270e-17
2.0173e+05 6.6725e-17
2.1066e+05 5.8396e-17
2.1998e+05 5.1124e-17
2.2972e+05 4.4771e-17
2.3989e+05 3.9219e-17
2.5051e+05 3.4363e-17
