# f(Hz)	 Electron noise power spectrum density (V^2/Hz)
4.0876e+03 1.3390e-14
4.2686e+03 1.3392e-14
4.4575e+03 1.3395e-14
4.6549e+03 1.3398e-14
4.8610e+03 1.3402e-14
5.0762e+03 1.3406e-14
5.3009e+03 1.3410e-14
5.5356e+03 1.3414e-14
5.7807e+03 1.3419e-14
6.0367e+03 1.3425e-14
6.3039e+03 1.3431e-14
6.5830e+03 1.3437e-14
6.8745e+03 1.3444e-14
7.1788e+03 1.3452e-14
7.4967e+03 1.3461e-14
7.8286e+03 1.3470e-14
8.1752e+03 1.3481e-14
8.5371e+03 1.3492e-14
8.9151e+03 1.3505e-14
9.3098e+03 1.3519e-14
9.7220e+03 1.3534e-14
1.0152e+04 1.3552e-14
1.0602e+04 1.3571e-14
1.1071e+04 1.3592e-14
1.1561e+04 1.3615e-14
1.2073e+04 1.3641e-14
1.2608e+04 1.3670e-14
1.3166e+04 1.3703e-14
1.3749e+04 1.3739e-14
1.4358e+04 1.3780e-14
1.4993e+04 1.3827e-14
1.5657e+04 1.3879e-14
1.6350e+04 1.3938e-14
1.7074e+04 1.4006e-14
1.7830e+04 1.4084e-14
1.8620e+04 1.4173e-14
1.9444e+04 1.4277e-14
2.0305e+04 1.4398e-14
2.1204e+04 1.4540e-14
2.2143e+04 1.4708e-14
2.3123e+04 1.4911e-14
2.4147e+04 1.5159e-14
2.5216e+04 1.5466e-14
2.6332e+04 1.5857e-14
2.7498e+04 1.6372e-14
2.8715e+04 1.7085e-14
2.9987e+04 1.8152e-14
3.1314e+04 1.9998e-14
3.2701e+04 2.4441e-14
3.4148e+04 2.6380e-13
3.5660e+04 2.2130e-13
3.7239e+04 1.3923e-13
3.8888e+04 8.1937e-14
4.0610e+04 5.6841e-14
4.2408e+04 4.3354e-14
4.4285e+04 3.4455e-14
4.6246e+04 2.7924e-14
4.8293e+04 2.2891e-14
5.0431e+04 1.8917e-14
5.2664e+04 1.5739e-14
5.4996e+04 1.3172e-14
5.7431e+04 1.1084e-14
5.9973e+04 9.3743e-15
6.2629e+04 7.9643e-15
6.5401e+04 6.7943e-15
6.8297e+04 5.8177e-15
7.1321e+04 4.9979e-15
7.4478e+04 4.3060e-15
7.7776e+04 3.7193e-15
8.1219e+04 3.2195e-15
8.4815e+04 2.7921e-15
8.8570e+04 2.4253e-15
9.2492e+04 2.1094e-15
9.6587e+04 1.8368e-15
1.0086e+05 1.6010e-15
1.0533e+05 1.3965e-15
1.0999e+05 1.2190e-15
1.1486e+05 1.0648e-15
1.1995e+05 9.3052e-16
1.2526e+05 8.1359e-16
1.3080e+05 7.1168e-16
1.3659e+05 6.2279e-16
1.4264e+05 5.4521e-16
1.4896e+05 4.7747e-16
1.5555e+05 4.1828e-16
1.6244e+05 3.6654e-16
1.6963e+05 3.2128e-16
1.7714e+05 2.8169e-16
1.8498e+05 2.4702e-16
1.9317e+05 2.1667e-16
2.0173e+05 1.9008e-16
2.1066e+05 1.6678e-16
2.1998e+05 1.4636e-16
2.2972e+05 1.2845e-16
2.3989e+05 1.1275e-16
2.5051e+05 9.8973e-17
